D. M. Wieliczka and S. Weng and M. R. Querry, "Wedge shaped cell for
highly absorbent liquids: infrared optical constants of water," Appl.
Opt., 28, 1714--1719, (1989).

wavelength	absorption
(nm)	(1/cm)
20000	2471.8
19952	2483.4
19908	2494.5
19861	2511.9
19814	2529.3
19771	2546.9
19677	2559.0
19635	2570.3
19589	2582.1
19543	2594.6
19497	2606.5
19455	2623.7
19410	2636.3
19365	2648.3
19320	2660.9
19231	2673.3
19186	2685.3
19142	2698.1
19099	2710.2
19055	2722.3
19011	2735.2
18968	2754.0
18879	2767.1
18836	2780.0
18793	2792.3
18751	2798.6
18706	2812.1
18664	2825.2
18622	2837.6
18536	2850.8
18491	2864.5
18450	2877.6
18409	2890.1
18365	2897.1
18282	2910.4
18238	2924.2
18198	2930.6
18155	2944.4
18113	2951.4
18031	2964.7
17989	2971.7
17947	2985.6
17905	2992.6
17864	3006.6
17784	3013.0
17743	3027.0
17702	3034.0
17662	3047.4
17621	3054.4
17538	3068.9
17498	3075.9
17458	3090.1
17419	3097.1
17337	3111.7
17298	3118.7
17259	3133.0
17218	3140.6
17141	3147.3
17100	3162.2
17062	3169.2
16984	3176.4
16943	3184.0
16903	3191.5
16866	3206.0
16787	3213.6
16750	3220.7
16711	3228.2
16633	3235.8
16595	3243.3
16559	3250.3
16483	3258.5
16445	3266.0
16407	3265.9
16369	3273.4
16292	3281.2
16255	3288.7
16218	3296.2
16145	3303.4
16106	3303.6
16033	3311.4
15995	3319.4
15959	3326.8
15886	3326.4
15848	3334.3
15813	3334.5
15741	3341.9
15704	3341.7
15667	3349.6
15596	3349.5
15559	3350.1
15487	3357.6
15454	3356.8
15418	3357.2
15347	3357.2
15312	3364.9
15242	3364.7
15205	3365.5
15135	3365.0
15101	3372.7
15067	3372.8
14997	3372.6
14963	3372.7
14894	3373.1
14859	3372.7
14791	3373.0
14758	3372.8
14689	3373.3
14656	3373.0
14588	3373.3
14554	3365.7
14489	3357.4
14455	3357.4
14388	3357.2
14355	3349.2
14290	3349.6
14255	3341.9
14190	3342.1
14158	3334.6
14092	3334.1
14061	3326.4
13996	3318.5
13965	3311.5
13900	3296.1
13835	3288.9
13805	3273.5
13740	3266.0
13708	3250.7
13646	3235.9
13615	3221.3
13552	3213.9
13490	3191.5
13459	3176.4
13398	3154.3
13335	3133.3
13305	3112.1
13243	3090.5
13214	3068.9
13153	3041.1
13092	3012.9
13062	2985.3
13002	2957.4
12942	2924.7
12912	2897.4
12853	2863.6
12794	2831.6
12765	2792.9
12706	2760.2
12647	2722.5
12590	2685.0
12560	2642.4
12503	2606.1
12446	2552.5
12389	2511.5
12359	2460.5
12303	2409.5
12246	2355.1
12189	2307.3
12162	2249.3
12107	2192.2
12050	2143.1
11995	2084.8
11940	2028.0
11912	1967.5
11858	1909.6
11804	1853.5
11750	1794.7
11695	1741.8
11641	1694.7
11587	1648.4
11561	1600.0
11507	1552.8
11455	1502.9
11403	1455.8
11351	1406.0
11298	1354.7
11246	1309.6
11236	1300.7
11223	1292.1
11211	1289.1
11198	1271.4
11186	1252.6
11173	1233.8
11161	1213.8
11148	1193.7
11136	1173.6
11123	1155.7
11111	1137.8
11099	1120.5
11086	1104.9
11074	1090.9
11062	1077.8
11050	1066.5
11038	1055.4
11025	1045.6
11013	1036.1
11001	1030.5
10989	1024.0
10977	1019.4
10965	1014.0
10953	1010.8
10941	1005.8
10929	1003.0
10917	999.48
10905	996.42
10893	991.97
10881	988.32
10870	984.42
10858	980.63
10846	976.48
10834	971.16
10823	965.95
10811	959.90
10799	953.26
10787	945.90
10776	938.76
10764	931.25
10753	919.98
10741	910.44
10730	902.28
10718	895.51
10707	886.61
10695	879.10
10684	870.98
10672	865.44
10661	857.76
10650	851.71
10638	844.59
10627	837.80
10616	831.94
10604	826.66
10593	821.84
10582	815.95
10571	809.91
10560	802.92
10549	797.69
10537	791.37
10526	785.28
10515	780.26
10504	776.29
10493	771.00
10482	764.85
10471	760.86
10460	757.21
10449	752.23
10438	747.72
10428	743.56
10417	739.51
10406	735.57
10395	730.65
10384	725.84
10373	722.60
10363	717.89
10352	714.14
10341	710.27
10331	705.77
10320	700.77
10309	696.13
10299	691.48
10288	688.17
10277	683.86
10267	680.16
10256	677.30
10246	674.44
10235	670.47
10225	667.22
10215	663.96
10204	661.32
10194	657.80
10183	655.51
10173	652.72
10163	649.80
10152	646.87
10142	643.31
10132	640.86
10121	637.79
10111	634.21
10101	631.24
10091	628.52
10081	624.79
10070	621.67
10060	618.68
10050	615.80
10040	612.91
10030	609.90
10020	607.50
10010	604.59
10000	601.93
9990.0	598.76
9980.0	596.58
9970.1	594.03
9960.2	592.10
9950.2	590.41
9940.4	588.85
9930.5	586.91
9920.6	585.08
9910.8	583.26
9901.0	581.55
9891.2	580.22
9881.4	578.12
9871.7	576.66
9861.9	575.19
9852.2	573.59
9842.5	571.85
9832.8	570.12
9823.2	568.88
9813.5	567.52
9803.9	566.29
9794.3	565.04
9784.7	563.41
9775.2	561.78
9765.6	560.53
9756.1	559.14
9746.6	558.01
9737.1	556.88
9727.6	555.61
9718.2	554.34
9708.7	552.81
9699.3	551.66
9689.9	550.51
9680.5	549.10
9671.2	548.07
9661.8	546.91
9652.5	545.62
9643.2	544.71
9633.9	543.41
9624.6	542.23
9615.4	541.32
9606.1	540.40
9596.9	539.35
9587.7	538.55
9578.5	537.63
9569.4	536.83
9560.2	535.90
9551.1	535.36
9542.0	534.42
9532.9	534.01
9523.8	533.20
9514.7	532.25
9505.7	531.30
9496.7	530.22
9487.7	529.67
9478.7	528.84
9469.7	528.02
9460.7	526.66
9451.8	526.22
9442.9	525.92
9434.0	525.22
9425.1	524.38
9416.2	523.81
9407.3	523.23
9398.5	522.66
9389.7	522.08
9380.9	521.36
9372.1	521.18
9363.3	520.73
9354.5	520.14
9345.8	519.82
9337.1	519.37
9328.4	519.04
9319.7	518.72
9311.0	517.85
9302.3	517.25
9293.7	516.79
9285.1	516.32
9276.4	515.85
9267.8	514.97
9259.3	514.09
9250.7	513.48
9242.1	513.55
9233.6	512.94
9225.1	512.59
9216.6	512.11
9208.1	511.49
9199.6	511.14
9191.2	510.79
9182.7	510.58
9174.3	510.36
9165.9	510.15
9157.5	509.52
9149.1	509.02
9140.8	508.94
9132.4	508.44
9124.1	508.21
9115.8	507.71
9107.5	507.35
9099.2	507.40
9090.9	507.17
9082.7	506.93
9074.4	506.29
9066.2	505.92
9058.0	505.54
9049.8	505.58
9041.6	505.62
9033.4	505.39
9025.3	505.42
9017.1	505.18
9009.0	505.22
9000.9	505.54
8992.8	505.15
8984.7	505.05
8976.7	505.08
8968.6	504.97
8960.6	505.01
8952.6	505.04
8944.5	505.07
8936.6	505.38
8928.6	505.41
8920.6	505.44
8912.7	505.32
8904.7	505.63
8896.8	505.66
8888.9	505.40
8881.0	504.72
8873.1	504.60
8865.2	504.77
8857.4	504.79
8849.6	504.53
8841.7	504.55
8833.9	504.57
8826.1	504.44
8818.3	504.17
8810.6	504.05
8802.8	503.78
8795.1	503.79
8787.3	503.95
8779.6	503.82
8771.9	503.98
8764.2	504.13
8756.6	504.14
8748.9	504.44
8741.3	504.59
8733.6	505.04
8726.0	505.19
8718.4	505.34
8710.8	505.49
8703.2	505.21
8695.7	505.36
8688.1	505.80
8680.6	506.10
8673.0	506.10
8665.5	506.25
8658.0	506.69
8650.5	506.69
8643.0	506.55
8635.6	506.55
8628.1	506.70
8620.7	506.70
8613.3	506.55
8605.9	506.84
8598.5	506.69
8591.1	506.98
8583.7	507.12
8576.3	506.97
8569.0	506.97
8561.6	507.25
8554.3	507.10
8547.0	506.80
8539.7	506.94
8532.4	506.93
8525.1	506.77
8517.9	507.06
8510.6	507.19
8503.4	507.77
8496.2	507.76
8489.0	508.19
8481.8	508.33
8474.6	508.02
8467.4	508.15
8460.2	508.28
8453.1	508.57
8445.9	508.70
8438.8	509.13
8431.7	509.26
8424.6	509.24
8417.5	509.37
8410.4	509.65
8403.4	509.33
8396.3	509.31
8389.3	509.59
8382.2	509.57
8375.2	509.84
8368.2	510.12
8361.2	510.40
8354.2	511.12
8347.2	511.55
8340.3	512.13
8333.3	512.86
8326.4	512.53
8319.5	512.81
8312.6	513.08
8305.6	513.51
8298.8	513.94
8291.9	514.36
8285.0	514.64
8278.1	514.91
8271.3	515.34
8264.5	515.31
8257.6	516.04
8250.8	516.46
8244.0	516.74
8237.2	516.71
8230.5	516.83
8223.7	517.25
8216.9	517.52
8210.2	517.95
8203.4	518.22
8196.7	518.34
8190.0	518.61
8183.3	518.73
8176.6	519.15
8169.9	518.96
8163.3	519.08
8156.6	519.35
8150.0	519.77
8143.3	520.04
8136.7	519.85
8130.1	519.81
8123.5	519.61
8116.9	520.03
8110.3	520.14
8103.7	520.26
8097.2	520.52
8090.6	520.48
8084.1	520.43
8077.5	520.23
8071.0	520.65
8064.5	520.92
8058.0	521.34
8051.5	521.13
8045.1	520.77
8038.6	520.88
8032.1	520.98
8025.7	520.93
8019.2	521.35
8012.8	521.14
8006.4	521.56
8000.0	521.35
7993.6	521.45
7987.2	521.55
7980.8	521.18
7974.5	520.81
7968.1	520.59
7961.8	520.53
7955.4	520.32
7949.1	520.42
7942.8	520.67
7936.5	520.77
7930.2	520.86
7923.9	520.80
7917.7	521.37
7911.4	521.47
7905.1	521.40
7898.9	521.50
7892.7	521.91
7886.4	522.80
7880.2	523.69
7874.0	524.42
7867.8	525.31
7861.6	525.57
7855.5	526.30
7849.3	526.71
7843.1	527.29
7837.0	527.86
7830.9	528.11
7824.7	528.69
7818.6	529.26
7812.5	530.00
7806.4	530.73
7800.3	531.15
7794.2	531.56
7788.2	531.66
7782.1	532.07
7776.0	532.32
7770.0	532.74
7764.0	532.99
7758.0	533.24
7751.9	533.65
7745.9	534.23
7739.9	534.64
7734.0	534.73
7728.0	534.49
7722.0	534.75
7716.0	535.00
7710.1	535.57
7704.2	535.98
7698.2	536.56
7692.3	537.30
7686.4	537.88
7680.5	538.29
7674.6	538.87
7668.7	539.12
7662.8	539.53
7657.0	539.29
7651.1	539.70
7645.3	539.78
7639.4	539.87
7633.6	539.95
7627.8	540.20
7622.0	540.12
7616.1	540.36
7610.4	540.44
7604.6	540.53
7598.8	540.44
7593.0	540.19
7587.3	540.43
7581.5	540.84
7575.8	541.25
7570.0	542.00
7564.3	542.24
7558.6	542.65
7552.9	543.23
7547.2	543.47
7541.5	543.55
7535.8	543.62
7530.1	543.37
7524.5	543.77
7518.8	543.52
7513.1	543.59
7507.5	543.50
7501.9	543.40
7496.3	543.64
7490.6	543.88
7485.0	543.95
7479.4	544.19
7473.8	543.93
7468.3	543.49
7462.7	543.39
7457.1	543.46
7451.6	544.20
7446.0	544.44
7440.5	544.85
7434.9	545.08
7429.4	545.32
7423.9	545.89
7418.4	546.47
7412.9	546.70
7407.4	546.77
7401.9	547.17
7396.4	547.24
7391.0	547.64
7385.5	547.37
7380.1	547.43
7374.6	547.32
7369.2	547.22
7363.8	547.45
7358.4	547.34
7352.9	547.23
7347.5	547.12
7342.1	547.01
7336.8	547.07
7331.4	547.47
7326.0	547.70
7320.6	547.58
7315.3	547.64
7309.9	548.21
7304.6	548.44
7299.3	548.67
7293.9	548.90
7288.6	548.95
7283.3	549.18
7278.0	549.76
7272.7	549.81
7267.4	550.21
7262.2	550.61
7256.9	551.01
7251.6	551.76
7246.4	551.98
7241.1	552.38
7235.9	552.96
7230.7	552.83
7225.4	553.23
7220.2	553.46
7215.0	554.03
7209.8	554.26
7204.6	554.83
7199.4	555.23
7194.2	555.11
7189.1	555.86
7183.9	555.91
7178.8	555.78
7173.6	555.66
7168.5	555.88
7163.3	556.28
7158.2	556.68
7153.1	557.07
7148.0	557.30
7142.9	557.70
7137.8	557.74
7132.7	558.14
7127.6	558.54
7122.5	558.05
7117.4	558.27
7112.4	558.14
7107.3	558.01
7102.3	558.58
7097.2	558.62
7092.2	558.67
7087.2	558.89
7082.2	559.28
7077.1	560.21
7072.1	560.25
7067.1	561.00
7062.1	561.76
7057.2	562.33
7052.2	562.91
7047.2	563.48
7042.3	564.59
7037.3	564.99
7032.3	565.74
7027.4	566.50
7022.5	566.72
7017.5	567.65
7012.6	568.59
7007.7	569.17
7002.8	569.21
6997.9	570.32
6993.0	570.54
6988.1	570.76
6983.2	570.98
6978.4	570.66
6973.5	570.70
6968.6	571.46
6963.8	571.67
6958.9	572.43
6954.1	572.29
6949.3	572.69
6944.4	573.27
6939.6	573.30
6934.8	573.88
6930.0	575.01
6925.2	576.49
6920.4	577.26
6915.6	578.56
6910.9	579.69
6906.1	580.64
6901.3	582.49
6896.6	583.81
6891.8	585.49
6887.1	586.26
6882.3	587.21
6877.6	588.16
6872.9	588.75
6868.1	589.52
6863.4	590.29
6858.7	591.43
6854.0	592.20
6849.3	592.97
6844.6	593.19
6839.9	593.97
6835.3	594.56
6830.6	594.78
6825.9	595.74
6821.3	597.07
6816.6	597.84
6812.0	598.43
6807.4	599.21
6802.7	600.17
6798.1	601.14
6793.5	601.54
6788.9	602.88
6784.3	603.84
6779.7	604.99
6775.1	605.96
6770.5	607.67
6765.9	609.20
6761.3	609.98
6756.8	611.32
6752.2	612.48
6747.6	614.01
6743.1	615.17
6738.5	616.89
6734.0	617.49
6729.5	619.03
6724.9	619.82
6720.4	621.17
6715.9	623.27
6711.4	624.25
6706.9	625.61
6702.4	626.59
6697.9	627.76
6693.4	628.56
6689.0	629.35
6684.5	630.15
6680.0	631.89
6675.6	632.31
6671.1	634.24
6666.7	635.42
6662.2	637.16
6657.8	638.34
6653.4	640.09
6648.9	641.27
6644.5	642.83
6640.1	644.58
6635.7	645.96
6631.3	647.33
6626.9	649.09
6622.5	651.04
6618.1	652.61
6613.8	654.37
6609.4	656.71
6605.0	658.47
6600.7	660.43
6596.3	662.39
6592.0	664.54
6587.6	667.46
6583.3	669.81
6578.9	672.35
6574.6	674.90
6570.3	676.49
6566.0	681.14
6561.7	686.76
6557.4	691.43
6553.1	693.22
6548.8	700.01
6544.5	703.73
6540.2	707.84
6535.9	712.73
6531.7	716.46
6527.4	722.90
6523.2	727.22
6518.9	731.94
6514.7	736.08
6510.4	741.19
6506.2	747.28
6502.0	750.47
6497.7	756.76
6493.5	763.44
6489.3	768.78
6485.1	776.26
6480.9	781.99
6476.7	791.23
6472.5	797.57
6468.3	802.36
6464.1	808.90
6459.9	815.26
6455.8	822.41
6451.6	825.08
6447.5	832.63
6443.3	837.26
6439.1	842.88
6435.0	847.91
6430.9	852.76
6426.7	862.30
6422.6	867.55
6418.5	876.72
6414.4	884.14
6410.3	890.59
6406.1	898.42
6402.0	905.86
6398.0	911.16
6393.9	920.78
6389.8	927.07
6385.7	934.36
6381.6	939.68
6377.6	948.36
6373.5	958.03
6369.4	966.73
6365.4	973.66
6361.3	982.38
6357.3	993.29
6353.2	998.86
6349.2	1010.0
6345.2	1023.7
6341.2	1036.8
6337.1	1045.4
6333.1	1056.2
6329.1	1067.8
6325.1	1081.2
6321.1	1093.2
6317.1	1104.4
6313.1	1119.3
6309.1	1131.3
6305.2	1146.4
6301.2	1158.7
6297.2	1180.4
6293.3	1193.5
6289.3	1210.4
6285.4	1229.6
6281.4	1246.4
6277.5	1269.2
6273.5	1287.2
6269.6	1310.4
6265.7	1336.5
6261.7	1357.4
6257.8	1383.2
6253.9	1403.9
6250.0	1430.0
6246.1	1459.0
6242.2	1492.3
6238.3	1516.6
6234.4	1548.6
6230.5	1580.2
6226.6	1606.3
6222.8	1633.7
6218.9	1671.9
6215.0	1699.2
6211.2	1743.8
6207.3	1784.1
6203.5	1804.7
6199.6	1831.8
6195.8	1876.3
6192.0	2053.8
6188.1	2095.7
6184.3	2137.6
6180.5	2183.7
6176.7	2223.7
6172.8	2259.7
6169.0	2295.7
6165.2	2323.6
6161.4	2372.0
6157.6	2414.2
6153.8	2440.2
6150.1	2474.4
6146.3	2496.4
6142.5	2520.4
6138.7	2554.7
6135.0	2564.5
6131.2	2586.6
6127.5	2608.7
6123.7	2620.5
6120.0	2630.3
6116.2	2648.4
6112.5	2654.1
6108.7	2670.1
6105.0	2680.0
6101.3	2691.9
6097.6	2697.7
6093.8	2684.9
6090.1	2709.2
6086.4	2710.9
6082.7	2702.2
6079.0	2703.9
6075.3	2691.0
6071.6	2676.1
6068.0	2673.6
6064.3	2664.8
6060.6	2658.2
6056.9	2657.7
6053.3	2651.0
6049.6	2631.8
6045.9	2618.9
6042.3	2614.2
6038.6	2607.5
6035.0	2602.8
6031.4	2583.5
6027.7	2564.3
6024.1	2532.4
6020.5	2519.3
6016.8	2500.0
6013.2	2478.5
6009.6	2450.7
6006.0	2427.1
6002.4	2392.9
5998.8	2365.0
5995.2	2335.0
5991.6	2294.5
5988.0	2264.4
5984.4	2236.3
5980.9	2206.2
5977.3	2165.4
5973.7	2126.7
5970.1	2097.1
5966.6	2060.8
5963.0	2022.0
5959.5	1991.2
5955.9	1960.9
5952.4	1929.6
5948.8	1740.8
5945.3	1705.3
5941.8	1682.2
5938.2	1650.4
5934.7	1598.2
5931.2	1561.0
5927.7	1535.5
5924.2	1505.4
5920.7	1480.8
5917.2	1446.0
5913.7	1416.7
5910.2	1386.3
5906.7	1357.3
5903.2	1330.9
5899.7	1302.5
5896.2	1265.8
5892.8	1242.0
5889.3	1209.2
5885.8	1178.3
5882.4	1152.3
5878.9	1128.2
5875.4	1107.0
5872.0	1085.4
5868.5	1059.9
5865.1	1044.3
5861.7	1025.2
5858.2	1002.6
5854.8	984.31
5851.4	967.27
5848.0	948.29
5844.5	931.00
5841.1	914.97
5837.7	896.57
5834.3	878.57
5830.9	863.13
5827.5	844.44
5824.1	830.69
5820.7	814.77
5817.3	800.12
5814.0	785.67
5810.6	772.72
5807.2	759.97
5803.8	748.29
5800.5	734.42
5797.1	723.58
5793.7	712.72
5790.4	702.28
5787.0	690.96
5783.7	681.58
5780.3	671.76
5777.0	661.71
5773.7	651.21
5770.3	640.91
5767.0	630.60
5763.7	621.59
5760.4	612.57
5757.1	603.76
5753.7	594.93
5750.4	585.44
5747.1	576.37
5743.8	569.49
5740.5	561.93
5737.2	554.81
5733.9	544.39
5730.7	536.80
5727.4	528.56
5724.1	520.30
5720.8	512.47
5717.6	503.97
5714.3	497.00
5711.0	488.26
5707.8	476.65
5704.5	448.95
5701.3	421.43
5698.0	420.57
5694.8	410.88
5691.5	405.81
5688.3	400.74
5685.0	395.89
5681.8	391.47
5678.6	387.04
5675.4	382.83
5672.1	378.40
5668.9	374.18
5665.7	370.40
5662.5	366.61
5659.3	363.05
5656.1	359.25
5652.9	355.90
5649.7	352.32
5646.5	348.96
5643.3	346.04
5640.2	342.89
5637.0	339.96
5633.8	337.03
5630.6	334.32
5627.5	331.61
5624.3	328.89
5621.1	326.39
5618.0	323.89
5614.8	321.61
5611.7	319.33
5608.5	317.04
5605.4	314.98
5602.2	312.69
5599.1	310.62
5596.0	308.55
5592.8	306.70
5589.7	304.85
5586.6	303.22
5583.5	301.36
5580.4	299.95
5577.2	298.32
5574.1	296.91
5571.0	295.27
5567.9	294.08
5564.8	292.43
5561.7	291.01
5558.6	289.59
5555.6	288.17
5552.5	286.97
5549.4	285.77
5546.3	284.35
5543.2	283.14
5540.2	282.17
5537.1	280.74
5534.0	279.53
5531.0	278.55
5527.9	277.34
5524.9	276.35
5521.8	275.14
5518.8	274.38
5515.7	273.17
5512.7	272.40
5509.6	271.19
5506.6	270.42
5503.6	269.43
5500.6	268.44
5497.5	267.44
5494.5	266.67
5491.5	265.68
5488.5	264.68
5485.5	263.68
5482.5	262.90
5479.5	261.90
5476.5	261.13
5473.5	260.12
5470.5	259.12
5467.5	258.34
5464.5	257.56
5461.5	256.78
5458.5	255.77
5455.5	254.99
5452.6	254.21
5449.6	253.65
5446.6	252.87
5443.7	252.31
5440.7	251.53
5437.7	250.97
5434.8	250.41
5431.8	249.85
5428.9	249.30
5425.9	248.74
5423.0	248.18
5420.1	247.62
5417.1	247.05
5414.2	246.49
5411.3	246.16
5408.3	245.60
5405.4	245.26
5402.5	244.70
5399.6	244.13
5396.7	243.80
5393.7	243.46
5390.8	243.36
5387.9	243.03
5385.0	242.92
5382.1	242.82
5379.2	242.49
5376.3	242.38
5373.5	242.28
5370.6	242.18
5367.7	242.07
5364.8	241.97
5361.9	241.86
5359.1	241.76
5356.2	241.89
5353.3	241.78
5350.5	241.68
5347.6	241.81
5344.7	241.93
5341.9	242.06
5339.0	242.19
5336.2	242.56
5333.3	242.69
5330.5	242.82
5327.7	243.18
5324.8	243.31
5322.0	243.68
5319.1	243.81
5316.3	243.94
5313.5	244.07
5310.7	244.43
5307.9	244.80
5305.0	244.93
5302.2	245.30
5299.4	245.43
5296.6	245.56
5293.8	245.69
5291.0	245.82
5288.2	246.18
5285.4	246.55
5282.6	246.68
5279.8	246.81
5277.0	247.18
5274.3	247.55
5271.5	248.16
5268.7	248.29
5265.9	248.66
5263.2	248.79
5260.4	249.16
5257.6	249.29
5254.9	249.42
5252.1	249.79
5249.3	249.92
5246.6	250.05
5243.8	250.18
5241.1	250.56
5238.3	250.69
5235.6	250.82
5232.9	250.95
5230.1	251.08
5227.4	251.45
5224.7	251.58
5221.9	251.96
5219.2	252.09
5216.5	252.22
5213.8	252.59
5211.0	252.72
5208.3	253.10
5205.6	253.47
5202.9	253.84
5200.2	254.22
5197.5	254.59
5194.8	254.72
5192.1	255.10
5189.4	255.47
5186.7	255.85
5184.0	256.46
5181.3	256.84
5178.7	257.22
5176.0	257.83
5173.3	258.21
5170.6	258.83
5168.0	259.45
5165.3	259.83
5162.6	260.45
5160.0	261.07
5157.3	261.69
5154.6	262.32
5152.0	262.94
5149.3	263.81
5146.7	264.43
5144.0	265.05
5141.4	265.92
5138.7	266.55
5136.1	267.18
5133.5	268.05
5130.8	268.92
5128.2	269.79
5125.6	270.67
5123.0	271.54
5120.3	272.42
5117.7	273.54
5115.1	274.42
5112.5	275.29
5109.9	276.42
5107.3	277.54
5104.6	278.67
5102.0	279.80
5099.4	280.93
5096.8	282.06
5094.2	283.19
5091.6	284.56
5089.1	285.70
5086.5	286.83
5083.9	287.97
5081.3	289.35
5078.7	290.48
5076.1	291.62
5073.6	292.76
5071.0	293.90
5068.4	295.29
5065.9	296.43
5063.3	297.57
5060.7	298.72
5058.2	299.86
5055.6	301.01
5053.1	302.16
5050.5	303.30
5048.0	304.45
5045.4	305.60
5042.9	306.75
5040.3	307.66
5037.8	308.56
5035.2	309.46
5032.7	310.37
5030.2	311.52
5027.7	312.68
5025.1	313.59
5022.6	315.00
5020.1	316.16
5017.6	317.07
5015.0	318.23
5012.5	319.14
5010.0	320.30
5007.5	321.22
5005.0	322.38
5002.5	323.30
5000.0	324.46
4997.5	325.13
4995.0	326.30
4992.5	327.47
4990.0	328.39
4987.5	329.56
4985.0	330.98
4982.6	331.90
4980.1	332.83
4977.6	333.50
4975.1	334.42
4972.7	335.35
4970.2	336.27
4967.7	336.94
4965.2	338.12
4962.8	338.80
4960.3	339.47
4957.9	340.65
4955.4	341.58
4952.9	342.26
4950.5	343.45
4948.0	344.38
4945.6	345.56
4943.2	346.75
4940.7	348.20
4938.3	349.39
4935.8	350.83
4933.4	351.77
4931.0	353.47
4928.5	354.92
4926.1	356.37
4923.7	357.57
4921.3	358.51
4918.8	359.71
4916.4	360.91
4914.0	362.11
4911.6	362.80
4909.2	364.25
4906.8	365.71
4904.4	366.66
4902.0	367.61
4899.6	369.07
4897.2	370.28
4894.8	370.98
4892.4	372.44
4890.0	373.39
4887.6	374.86
4885.2	375.82
4882.8	377.03
4880.4	377.99
4878.0	378.94
4875.7	380.16
4873.3	381.38
4870.9	382.08
4868.5	383.04
4866.2	384.00
4863.8	384.45
4861.4	385.67
4859.1	386.63
4856.7	387.59
4854.4	388.30
4852.0	389.78
4849.7	390.75
4847.3	391.98
4845.0	392.95
4842.6	394.17
4840.3	395.14
4837.9	395.85
4835.6	397.08
4833.3	397.80
4830.9	398.77
4828.6	399.22
4826.3	399.94
4823.9	400.91
4821.6	401.63
4819.3	402.60
4817.0	403.06
4814.6	403.25
4812.3	403.71
4810.0	404.42
4807.7	404.88
4805.4	405.33
4803.1	405.79
4800.8	406.25
4798.5	406.44
4796.2	407.42
4793.9	407.88
4791.6	408.60
4789.3	408.53
4787.0	408.73
4784.7	408.66
4782.4	408.86
4780.1	409.05
4777.8	408.99
4775.5	409.18
4773.3	409.38
4771.0	410.10
4768.7	410.82
4766.4	411.02
4764.2	410.95
4761.9	411.15
4759.6	411.34
4757.4	411.80
4755.1	412.00
4752.9	411.93
4750.6	412.13
4748.3	412.32
4746.1	412.78
4743.8	412.98
4741.6	412.91
4739.3	412.57
4737.1	412.50
4734.8	412.43
4732.6	411.83
4730.4	411.76
4728.1	412.22
4725.9	412.42
4723.7	412.35
4721.4	412.81
4719.2	413.00
4717.0	413.20
4714.8	413.39
4712.5	413.59
4710.3	414.05
4708.1	414.51
4705.9	414.71
4703.7	414.90
4701.5	415.10
4699.2	415.02
4697.0	415.22
4694.8	415.15
4692.6	415.07
4690.4	414.46
4688.2	413.85
4686.0	413.24
4683.8	412.63
4681.6	412.02
4679.5	411.14
4677.3	410.53
4675.1	410.45
4672.9	409.83
4670.7	409.22
4668.5	408.87
4666.4	408.52
4664.2	408.18
4662.0	408.10
4659.8	408.56
4657.7	408.48
